Wavelength,Intensity
100,612
101,271
102,125
103,190
104,231
105,174
106,435
107,1607
108,3033
109,3571
110,3858
111,3854
112,3871
113,3905
114,2935
115,1175
116,479
117,274
118,122
119,175
120,173
121,217
122,956
123,2675
124,3475
125,3725
126,3833
127,3989
128,3901
129,3599
130,1463
131,669
132,317
133,253
134,235
135,175
136,202
137,597
138,2061
139,3133
140,3709
141,3977
142,3919
143,3893
144,3759
145,1971
146,845
147,325
148,101
149,87
150,85
151,95
152,431
153,1691
154,3103
155,3634
156,3853
157,3870
158,3925
159,3859
160,2652
161,1006
162,479
163,275
164,138
165,52
166,118
167,252
168,1132
169,2668
170,3444
171,3804
172,3899
173,4043
174,3947
175,3623
176,1685
177,665
178,299
179,178
180,159
181,157
182,164
183,351
184,1479
185,2995
186,3619
187,3763
188,3930
189,3915
190,3869
191,3402
192,1257
193,517
194,158
195,139
196,57
197,150
198,142
199,351
