Wavelength,Intensity
100,1532
101,1589
102,1687
103,1804
104,1884
105,2079
106,2185
107,2143
108,2236
109,2287
110,2249
111,1989
112,1855
113,1876
114,1639
115,1459
116,1311
117,1191
118,1089
119,905
120,903
121,1038
122,1201
123,1479
124,1657
125,1951
126,2189
127,2166
128,2255
129,2227
130,2230
131,2151
132,1977
133,2207
134,2047
135,1945
136,1543
137,1114
138,923
139,852
140,775
141,807
142,1047
143,1327
144,1714
145,2074
146,2279
147,2549
148,2779
149,2858
150,2859
151,2767
152,2575
153,2296
154,2079
155,1729
156,1303
157,1089
158,797
159,799
160,855
161,999
162,1255
163,1554
164,1802
165,2079
166,2395
167,2627
168,2669
169,2796
170,2803
171,2715
172,2483
173,2246
174,1799
175,1462
176,1280
177,897
178,719
179,747
180,927
181,1182
182,1455
183,1815
184,2109
185,2391
186,2607
187,2772
188,2795
189,2847
190,2771
191,2525
192,2307
193,1871
194,1619
195,1291
196,1003
197,947
198,935
199,961
100,1325
101,1337
102,1203
103,1055
104,935
105,881
106,923
107,1079
108,1328
109,1573
110,1837
111,2191
112,2380
113,2527
114,2748
115,2873
116,2906
117,2757
118,2481
119,2295
120,2107
121,1811
122,1475
123,1116
124,960
125,735
126,811
127,860
128,1015
129,1327
130,1583
131,1867
132,2083
133,2264
134,2479
135,2702
136,2733
137,2797
138,2795
139,2662
140,2430
141,2283
142,1980
143,1799
144,1379
145,1123
146,938
147,875
148,871
149,949
150,1157
151,1230
152,1499
153,1858
154,2055
155,2230
156,2543
157,2761
158,2743
159,2862
160,2789
161,2599
162,2383
163,2113
164,1695
165,1567
166,1331
167,1135
168,1002
169,920
170,847
171,934
172,1116
173,1349
174,1551
175,1857
176,2095
177,2397
178,2616
179,2762
180,2743
181,2846
182,2723
183,2486
184,2319
185,1976
186,1795
187,1359
188,1111
189,946
190,903
191,783
192,855
193,1062
194,1287
195,1518
196,1924
197,2130
198,2347
199,2579
100,1486
101,1269
102,1417
103,1528
104,1895
105,2188
106,2331
107,2567
108,2638
109,2709
110,2727
111,2650
112,2459
113,2235
114,2015
115,1794
116,1311
117,1127
118,955
119,967
120,846
121,921
122,1125
123,1373
124,1715
125,2063
126,2223
127,2527
128,2745
129,2868
130,2895
131,2767
132,2583
133,2343
134,2079
135,1788
136,1611
137,1217
138,894
139,947
140,925
141,941
142,1097
143,1179
144,1494
145,1815
146,2119
147,2282
148,2543
149,2767
150,2807
151,2911
152,2827
153,2549
154,2399
155,2143
156,1827
157,1515
158,1285
159,951
160,955
161,973
162,891
163,1117
164,1267
165,1547
166,1718
167,2091
168,2271
169,2556
170,2790
171,2828
172,2781
173,2797
174,2694
175,2389
176,2159
177,1943
178,1711
179,1477
180,1107
181,916
182,812
183,802
184,805
185,963
186,1113
187,1413
188,1647
189,2047
190,2499
191,2559
192,2831
193,2827
194,2783
195,2830
196,2631
197,2387
198,2163
199,1962
100,1282
101,890
102,931
103,961
104,975
105,1219
106,1395
107,1771
108,2078
109,2255
110,2457
111,2624
112,2622
113,2828
114,2766
115,2691
116,2491
117,2447
118,2191
119,1905
120,1749
121,1469
122,1319
123,1084
124,987
125,919
126,882
127,1003
128,1172
129,1302
130,1543
131,1747
132,2050
133,2159
134,2496
135,2567
136,2649
137,2745
138,2830
139,2655
140,2537
141,2311
142,1971
143,1846
144,1615
145,1271
146,1155
147,856
148,799
149,853
150,940
151,1139
152,1399
153,1738
154,1916
155,2301
156,2567
157,2611
158,2767
159,2819
160,2752
161,2602
162,2501
163,2261
164,2044
165,1976
166,1719
167,1459
168,1223
169,938
170,883
171,911
172,962
173,1023
174,1458
175,1731
176,1902
177,2266
178,2475
179,2671
180,2829
181,2808
182,2880
183,2631
184,2423
185,2322
186,1975
187,1849
188,1583
189,1293
190,995
191,883
192,894
193,1019
194,1229
195,1307
196,1575
197,1857
198,2051
199,2227
