Wavelength,Intensity
100,655
101,403
102,336
103,395
104,1329
105,2823
106,3619
107,3919
108,4093
109,4095
110,4095
111,4095
112,4095
113,3753
114,2171
115,1073
116,639
117,535
118,389
119,261
120,213
121,267
122,246
123,356
124,347
125,557
126,1619
127,2973
128,3748
129,3998
130,4095
131,4095
132,4095
133,4095
134,4095
135,4095
136,3063
137,1473
138,699
139,561
140,443
141,455
142,322
143,233
144,303
145,365
146,386
147,287
148,567
149,1623
150,2932
151,3762
152,4095
153,4095
154,4095
155,4095
156,4095
157,4095
158,4095
159,3199
160,1567
161,879
162,611
163,438
164,451
165,315
166,415
167,423
168,399
169,362
170,399
171,522
172,1479
173,2887
174,3691
175,4054
176,4095
177,4095
178,4095
179,4095
180,4095
181,4095
182,3211
183,1423
184,766
185,621
186,482
187,391
188,310
189,397
190,333
191,313
192,407
193,402
194,537
195,1532
196,3008
197,3734
198,4039
199,4095
