Wavelength,Intensity
100,3679
101,3823
102,3911
103,3867
104,3783
105,3467
106,1690
107,707
108,487
109,364
110,223
111,199
112,103
113,302
114,1159
115,2406
116,3290
117,3639
118,3883
119,3895
120,3983
121,3904
122,3781
123,3331
124,1537
125,531
126,539
127,267
128,116
129,167
130,173
131,453
132,1270
133,2629
134,3346
135,3615
136,3820
137,3871
138,3915
139,3858
140,3703
141,3036
142,1231
143,504
144,575
145,714
146,281
147,177
148,195
149,313
150,1291
151,2524
152,3367
153,3663
154,3778
155,3823
156,3915
157,3854
158,3759
159,3239
160,1383
161,600
162,343
163,961
164,343
165,207
166,143
167,240
168,1015
169,2330
170,3259
171,3737
172,3822
173,3906
174,3879
175,3853
176,3806
177,3441
178,1907
179,840
180,311
181,1143
182,558
183,312
184,260
185,137
186,681
187,1895
188,3122
189,3619
190,3718
191,3793
192,3798
193,3825
194,3866
195,3471
196,2245
197,783
198,347
199,973
